# Format: McCode with text headers
# URL: http://www.mccode.org
# Creator: McStas 2.5 - Feb. 24, 2020
# Instrument: /zhome/89/0/38697/once/McStas-2.5_CPU_MPICC/PSI_Focus/PSI_Focus.instr
# Ncount: 1000000
# Trace: no
# Gravitation: no
# Seed: 1582679640
# Directory: 1
# Nodes: 10
# Param: lambda=3.4
# Param: chopp_ratio=1
# Param: DET=-69.9
# Date: Tue Feb 25 21:30:57 2020 (1582662657)
# type: array_1d(60)
# Source: PSI_Focus (/zhome/89/0/38697/once/McStas-2.5_CPU_MPICC/PSI_Focus/PSI_Focus.instr)
# component: lambdaGuideExit
# position: 0 0 66.611
# title: Wavelength monitor
# Ncount: 10000000
# filename: lambdaguide.dat
# statistics: X0=3.42496; dX=0.395259;
# signal: Min=5.8065e+07; Max=7.75171e+07; Mean=7.24647e+07;
# values: 4.34788e+09 4.33474e+06 3.74409e+06
# xvar: L
# yvar: (I,I_err)
# xlabel: Wavelength [AA]
# ylabel: Intensity
# xlimits: 2.7 4.1
# variables: L I I_err N
2.711666667 58065012.48 559718.3551 42663 
2.735 58664054.02 561611.3417 43272 
2.758333333 60158884.41 567419.5339 44071 
2.781666667 60037689.82 565566.9524 44491 
2.805 60851674.66 569752.8621 45038 
2.828333333 62041200.66 572704.6478 45939 
2.851666667 62614978.73 574688.0822 46479 
2.875 65421907.4 587225.4929 47622 
2.898333333 64360741.17 578990.6042 47883 
2.921666667 65479951.9 582436.9774 48407 
2.945 66606380.3 585858.0827 49268 
2.968333333 66968140.44 586337.2385 49796 
2.991666667 67224661.97 586067.28 50065 
3.015 69672323.35 593903.8547 51097 
3.038333333 70098977.67 594617.5713 51740 
3.061666667 70312924.89 593335.6924 52600 
3.085 71016032.54 594578.2749 53429 
3.108333333 71919225.94 596212.7784 53800 
3.131666667 71832619.69 593842.3939 54558 
3.155 71169608.77 587883.4093 55114 
3.178333333 73317955.42 594641.0549 55982 
3.201666667 71678186.56 584910.2907 56361 
3.225 73324165.36 590740.5166 56758 
3.248333333 74071792.05 590380.3077 58242 
3.271666667 75545667.65 593390.2949 58883 
3.295 76232682.92 594062.061 59540 
3.318333333 75599968.07 588109.1879 59880 
3.341666667 75639544.53 586379.5353 60499 
3.365 76501309.18 587276.8865 61622 
3.388333333 76685454.07 584779.2308 62115 
3.411666667 76146302.38 579289.4115 62638 
3.435 75806043.46 575599.374 63098 
3.458333333 75525946.71 570559.2034 64016 
3.481666667 76341539.08 570740.9577 64874 
3.505 77172412.12 571227.2565 65743 
3.528333333 76632848.67 566556.7923 66460 
3.551666667 77346632.61 565326.4827 66861 
3.575 76758108.27 559801.634 67617 
3.598333333 76673783.35 556360.3148 67975 
3.621666667 75718343.21 550079.7383 68480 
3.645 77436972.66 553250.3875 69713 
3.668333333 77517102.86 549737.9409 70494 
3.691666667 76732395.23 543766.0509 71247 
3.715 76997795.73 541197.7769 71769 
3.738333333 76372781.81 535572.7072 72009 
3.761666667 77133592.52 535310.9104 73246 
3.785 77034756.56 531686.904 73556 
3.808333333 76850106.43 527224.4087 74513 
3.831666667 75809003.88 520032.2431 75192 
3.855 76591798.49 519154.1273 75805 
3.878333333 76147681.14 514856.5783 76224 
3.901666667 76848854.04 514055.2109 77341 
3.925 75797083.07 506374.4627 77420 
3.948333333 75784343.65 503180.5443 78150 
3.971666667 75241761.39 497854.1533 78749 
3.995 74633004.32 492680.1592 79523 
4.018333333 74801513.07 489596.4545 79945 
4.041666667 74685917.31 486824.2946 80796 
4.065 74014160.59 480475.2234 81470 
4.088333333 74214227.94 477542.6624 81949 
